"Time (ps)"	"Counts per bin"
0	20892944
100	0
200	0
300	0
400	0
500	0
600	0
700	0
800	0
900	0
1000	0
1100	0
1200	0
1300	0
1400	0
1500	0
1600	0
1700	0
1800	0
1900	0
2000	0
2100	0
2200	0
2300	0
2400	0
2500	0
2600	0
2700	0
2800	0
2900	0
3000	0
3100	0
3200	0
3300	0
3400	0
3500	0
3600	0
3700	0
3800	0
3900	0
4000	0
4100	0
4200	0
4300	0
4400	0
4500	0
4600	0
4700	0
4800	0
4900	0
5000	0
5100	0
5200	0
5300	0
5400	0
5500	0
5600	0
5700	0
5800	0
5900	633
6000	1903
6100	1834
6200	1968
6300	1865
6400	1819
6500	1864
6600	1824
6700	1756
6800	1694
6900	1696
7000	1619
7100	1665
7200	1675
7300	1614
7400	1671
7500	1750
7600	1647
7700	1712
7800	1509
7900	1478
8000	1356
8100	1352
8200	1188
8300	1060
8400	985
8500	860
8600	649
8700	619
8800	559
8900	441
9000	435
9100	439
9200	349
9300	340
9400	336
9500	333
9600	315
9700	288
9800	282
9900	294
10000	266
10100	275
10200	287
10300	272
10400	309
10500	273
10600	293
10700	263
10800	310
10900	270
11000	301
11100	317
11200	344
11300	349
11400	406
11500	403
11600	459
11700	513
11800	592
11900	603
12000	671
12100	729
12200	842
12300	865
12400	1013
12500	1119
12600	1219
12700	1311
12800	1403
12900	1561
13000	1578
13100	1834
13200	1906
13300	1969
13400	2095
13500	2151
13600	2135
13700	2304
13800	2286
13900	2223
14000	2256
14100	2351
14200	2361
14300	2372
14400	2486
14500	2614
14600	2644
14700	2801
14800	2808
14900	2923
15000	3011
15100	3134
15200	3164
15300	3182
15400	3239
15500	3128
15600	3138
15700	3183
15800	3126
15900	3018
16000	3063
16100	3043
16200	2980
16300	3050
16400	3081
16500	3120
16600	3113
16700	3017
16800	3008
16900	3017
17000	3010
17100	2954
17200	2924
17300	2751
17400	2760
17500	2673
17600	2600
17700	2560
17800	2469
17900	2411
18000	2394
18100	2350
18200	2404
18300	2360
18400	2313
18500	2379
18600	2491
18700	2320
18800	2452
18900	2412
19000	2457
19100	2430
19200	2426
19300	2524
19400	2505
19500	2580
19600	2788
19700	2753
19800	2729
19900	2891
20000	2844
20100	2839
20200	2783
20300	2879
20400	2848
20500	2904
20600	2832
20700	2753
20800	2770
20900	2588
21000	2636
21100	2505
21200	2508
21300	2365
21400	2309
21500	2260
21600	2109
21700	2041
21800	2034
21900	1899
22000	1954
22100	1839
22200	1854
22300	1845
22400	1846
22500	1780
22600	1943
22700	1811
22800	1836
22900	1864
23000	1821
23100	1931
23200	1958
23300	1934
23400	1902
23500	1941
23600	1974
23700	1985
23800	2078
23900	2101
24000	2064
24100	2185
24200	2236
24300	2251
24400	2299
24500	2403
24600	2513
24700	2668
24800	2849
24900	3016
25000	3176
25100	3420
25200	3708
25300	3909
25400	4151
25500	4328
25600	4465
25700	4458
25800	4590
25900	4909
26000	5104
26100	5984
26200	7037
26300	8615
26400	10691
26500	13385
26600	15913
26700	18166
26800	18680
26900	18329
27000	16102
27100	13240
27200	9938
27300	7819
27400	6136
27500	5018
27600	4106
27700	3599
27800	3324
27900	3120
28000	2776
28100	2739
28200	2620
28300	2580
28400	2571
28500	2512
28600	2585
28700	2568
28800	2495
28900	2490
29000	2432
29100	2427
29200	2458
29300	2493
29400	2491
29500	2510
29600	2407
29700	2449
29800	2506
29900	2385
30000	2606
30100	2461
30200	2473
30300	2530
30400	2535
30500	2503
30600	2550
30700	2614
30800	2537
30900	2553
31000	2593
31100	2540
31200	2597
31300	2679
31400	2572
31500	2632
31600	2685
31700	2605
31800	2682
31900	2566
32000	2594
32100	2690
32200	2581
32300	2686
32400	2640
32500	2627
32600	2530
32700	2663
32800	2525
32900	2676
33000	2703
33100	2690
33200	2649
33300	2620
33400	2678
33500	2733
33600	2694
33700	2634
33800	2732
33900	2709
34000	2679
34100	2755
34200	2708
34300	2729
34400	2687
34500	2695
34600	2824
34700	2762
34800	2714
34900	2757
35000	2684
35100	2765
35200	2801
35300	2755
35400	2778
35500	2758
35600	2776
35700	2764
35800	2755
35900	2810
36000	2735
36100	2743
36200	2787
36300	2809
36400	2869
36500	2877
36600	2753
36700	2809
36800	2807
36900	2903
37000	2786
37100	2747
37200	2786
37300	2773
37400	2738
37500	2762
37600	2720
37700	2734
37800	2883
37900	2842
38000	2860
38100	2856
38200	2776
38300	2851
38400	2919
38500	2907
38600	2914
38700	2954
38800	2931
38900	2910
39000	2924
39100	2995
39200	2919
39300	2893
39400	2967
39500	2992
39600	2948
39700	2939
39800	2930
39900	2950
40000	2953
40100	2996
40200	3030
40300	3016
40400	3010
40500	2895
40600	2967
40700	3050
40800	2967
40900	3024
41000	2900
41100	3017
41200	2982
41300	2987
41400	2937
41500	3026
41600	2938
41700	2991
41800	2961
41900	2977
42000	2980
42100	2918
42200	2971
42300	2986
42400	2975
42500	2912
42600	2864
42700	2950
42800	3030
42900	3029
43000	3012
43100	2963
43200	3018
43300	2932
43400	2981
43500	3092
43600	2975
43700	2910
43800	3046
43900	2967
44000	2952
44100	2883
44200	3001
44300	3044
44400	3011
44500	3001
44600	3020
44700	3083
44800	3026
44900	3195
45000	3160
45100	3211
45200	3201
45300	3139
45400	3263
45500	3237
45600	3207
45700	3404
45800	3481
45900	3565
46000	3770
46100	3786
46200	3780
46300	3979
46400	4080
46500	4157
46600	4114
46700	4226
46800	4274
46900	4231
47000	4355
47100	4408
47200	4444
47300	4350
47400	4552
47500	4458
47600	4599
47700	4424
47800	4581
47900	4578
48000	4539
48100	4441
48200	4492
48300	4472
48400	4525
48500	4519
48600	4543
48700	4559
48800	4585
48900	4563
49000	4654
49100	4622
49200	4560
49300	4616
49400	4658
49500	4858
49600	4829
49700	4801
49800	4897
49900	5047
50000	4966
50100	5066
50200	5097
50300	5137
50400	5242
50500	5347
50600	5519
50700	5652
50800	5754
50900	5990
51000	6120
51100	6420
51200	6609
51300	7051
51400	7366
51500	7736
51600	8291
51700	8711
51800	9324
51900	9783
52000	10313
52100	10975
52200	11683
52300	12169
52400	12611
52500	13207
52600	14048
52700	14735
52800	15668
52900	16476
53000	17253
53100	18569
53200	19404
53300	20346
53400	21092
53500	21841
53600	22307
53700	22566
53800	22674
53900	22216
54000	21596
54100	21149
54200	20346
54300	19337
54400	18495
54500	17080
54600	15864
54700	14591
54800	13281
54900	12552
55000	11336
55100	10173
55200	9284
55300	8639
55400	7722
55500	6990
55600	6462
55700	6060
55800	5659
55900	5188
56000	4867
56100	4748
56200	4615
56300	4468
56400	4261
56500	4130
56600	3952
56700	4026
56800	3983
56900	3948
57000	3896
57100	3797
57200	3875
57300	3877
57400	3788
57500	3657
57600	3702
57700	3670
57800	3617
57900	3460
58000	3593
58100	3479
58200	3589
58300	3552
58400	3361
58500	3422
58600	3456
58700	3439
58800	3419
58900	3229
59000	3347
59100	3427
59200	3391
59300	3317
59400	3296
59500	3284
59600	3294
59700	3250
59800	3181
59900	3277
60000	3149
60100	3152
60200	3178
60300	3147
60400	3061
60500	3168
60600	3118
60700	3104
60800	3015
60900	3044
61000	3001
61100	3093
61200	3015
61300	3015
61400	3043
61500	2962
61600	3011
61700	3018
61800	2924
61900	2919
62000	3054
62100	2958
62200	3155
62300	3175
62400	3098
62500	3032
62600	3110
62700	3059
62800	3156
62900	3172
63000	3318
63100	3171
63200	3135
63300	3184
63400	3159
63500	3222
63600	3399
63700	3384
63800	3321
63900	3281
64000	3383
64100	3405
64200	3381
64300	3356
64400	3423
64500	3436
64600	3348
64700	3475
64800	3547
64900	3375
65000	3433
65100	3405
65200	3451
65300	3395
65400	3349
65500	3422
65600	3358
65700	3423
65800	3297
65900	3278
66000	3259
66100	3234
66200	3193
66300	3340
66400	3247
66500	3199
66600	3190
66700	3205
66800	3335
66900	3121
67000	3157
67100	3234
67200	3095
67300	3053
67400	3167
67500	3132
67600	3062
67700	3127
67800	3095
67900	3007
68000	3069
68100	3073
68200	3022
68300	3056
68400	3059
68500	3172
68600	3099
68700	3152
68800	3128
68900	3125
69000	3114
69100	3106
69200	3098
69300	3117
69400	3080
69500	3129
69600	3057
69700	3047
69800	3035
69900	3107
70000	3143
70100	3058
70200	3147
70300	3087
70400	3070
70500	3167
70600	3109
70700	2942
70800	2953
70900	3009
71000	2977
71100	3095
71200	3117
71300	3123
71400	3061
71500	3052
71600	2966
71700	3097
71800	2985
71900	3085
72000	3010
72100	3010
72200	3016
72300	3001
72400	2972
72500	3067
72600	3002
72700	2913
72800	3032
72900	2919
73000	3021
73100	3008
73200	2940
73300	3011
73400	2979
73500	2993
73600	2951
73700	2844
73800	2928
73900	2907
74000	2896
74100	3025
74200	3077
74300	2880
74400	2942
74500	2919
74600	3004
74700	2936
74800	2930
74900	2878
75000	2919
75100	2880
75200	3000
75300	2925
75400	2884
75500	2917
75600	2867
75700	2856
75800	2877
75900	2979
76000	2811
76100	2906
76200	2873
76300	2897
76400	2950
76500	2950
76600	2937
76700	2838
76800	2911
76900	2892
77000	2874
77100	2866
77200	2846
77300	2850
77400	2958
77500	2804
77600	2894
77700	2953
77800	2861
77900	2875
78000	2906
78100	2891
78200	2878
78300	2960
78400	2813
78500	2881
78600	2786
78700	2898
78800	2830
78900	2869
79000	2873
79100	2866
79200	2900
79300	2966
79400	2815
79500	2910
79600	2886
79700	2970
79800	2891
79900	2925
80000	2813
80100	2931
80200	2804
80300	2929
80400	2802
80500	2856
80600	2832
80700	2956
80800	2845
80900	2836
81000	2792
81100	3022
81200	2866
81300	2943
81400	2954
81500	2923
81600	3011
81700	2903
81800	2880
81900	2866
82000	2798
82100	2831
82200	2922
82300	2822
82400	2920
82500	2941
82600	2949
82700	2870
82800	2899
82900	3089
83000	2969
83100	2870
83200	2997
83300	2902
83400	2993
83500	2997
83600	2918
83700	3013
83800	2965
83900	2980
84000	2920
84100	2909
84200	2964
84300	3007
84400	2961
84500	3020
84600	3042
84700	2969
84800	3009
84900	2986
85000	2943
85100	2913
85200	2975
85300	3066
85400	3044
85500	3124
85600	2995
85700	3106
85800	2955
85900	3064
86000	3070
86100	3045
86200	3045
86300	3053
86400	3076
86500	3108
86600	3154
86700	3098
86800	3203
86900	3157
87000	3238
87100	3166
87200	3160
87300	3168
87400	3192
87500	3112
87600	3221
87700	3226
87800	3106
87900	3159
88000	3197
88100	3042
88200	3232
88300	3104
88400	3052
88500	3220
88600	3097
88700	3089
88800	3143
88900	3167
89000	3055
89100	3202
89200	3111
89300	3050
89400	3148
89500	3090
89600	2981
89700	3102
89800	3088
89900	3085
90000	3037
90100	3155
90200	3012
90300	3060
90400	3151
90500	3096
90600	3036
90700	3013
90800	3085
90900	2963
91000	3008
91100	3076
91200	3057
91300	3008
91400	3155
91500	3119
91600	3132
91700	3085
91800	3104
91900	3086
92000	3143
92100	3126
92200	3124
92300	3093
92400	3143
92500	3117
92600	3107
92700	3212
92800	3228
92900	3150
93000	3164
93100	3086
93200	3227
93300	3163
93400	3183
93500	3156
93600	3206
93700	3178
93800	3244
93900	3163
94000	3118
94100	3252
94200	3208
94300	3150
94400	3245
94500	3319
94600	3232
94700	3343
94800	3269
94900	3236
95000	3233
95100	3297
95200	3322
95300	3388
95400	3347
95500	3357
95600	3331
95700	3292
95800	3362
95900	3429
96000	3417
96100	3462
96200	3534
96300	3455
96400	3474
96500	3660
96600	3667
96700	3576
96800	3716
96900	3697
97000	3625
97100	3699
97200	3617
97300	3729
97400	3781
97500	3976
97600	3794
97700	3982
97800	4016
97900	4037
98000	3933
98100	4030
98200	3985
98300	4062
98400	4112
98500	4072
98600	4213
98700	4225
98800	4271
98900	4211
99000	4285
99100	4399
99200	4309
99300	4379
99400	4351
99500	4290
99600	4327
99700	4410
99800	4437
99900	4280
