"Time (ps)"	"Counts per bin"
0	44166577
100	0
200	0
300	0
400	0
500	0
600	0
700	0
800	0
900	0
1000	0
1100	0
1200	0
1300	0
1400	0
1500	0
1600	0
1700	0
1800	0
1900	0
2000	0
2100	0
2200	0
2300	0
2400	0
2500	0
2600	0
2700	0
2800	0
2900	0
3000	0
3100	0
3200	0
3300	0
3400	0
3500	0
3600	0
3700	0
3800	0
3900	0
4000	0
4100	0
4200	0
4300	0
4400	0
4500	0
4600	0
4700	0
4800	0
4900	0
5000	0
5100	0
5200	0
5300	0
5400	0
5500	0
5600	0
5700	0
5800	1
5900	1725
6000	5585
6100	5072
6200	5099
6300	5052
6400	5009
6500	5026
6600	5050
6700	4940
6800	4785
6900	4719
7000	4871
7100	4804
7200	4826
7300	4789
7400	4813
7500	4881
7600	5016
7700	5164
7800	5329
7900	5488
8000	5588
8100	5939
8200	5980
8300	6242
8400	6473
8500	6739
8600	7031
8700	7328
8800	7397
8900	7792
9000	7738
9100	8019
9200	8349
9300	8853
9400	9067
9500	9272
9600	9644
9700	9984
9800	10240
9900	10724
10000	10746
10100	10966
10200	11163
10300	11281
10400	11444
10500	11401
10600	11827
10700	11983
10800	11993
10900	12152
11000	12447
11100	12415
11200	12167
11300	12141
11400	12426
11500	12128
11600	11793
11700	11628
11800	11435
11900	11122
12000	11197
12100	10797
12200	10704
12300	10570
12400	10837
12500	11041
12600	11640
12700	12133
12800	12928
12900	13620
13000	14142
13100	15358
13200	16703
13300	17762
13400	19099
13500	20473
13600	21850
13700	23470
13800	25276
13900	26802
14000	29046
14100	31436
14200	34390
14300	36786
14400	40238
14500	43393
14600	46897
14700	50158
14800	54150
14900	58074
15000	61267
15100	64802
15200	66772
15300	69467
15400	70954
15500	71275
15600	71975
15700	71425
15800	70327
15900	68471
16000	67003
16100	64712
16200	62380
16300	60196
16400	57222
16500	54219
16600	51927
16700	49304
16800	46867
16900	44498
17000	42048
17100	40189
17200	37747
17300	35475
17400	34036
17500	31862
17600	30338
17700	28828
17800	26995
17900	25669
18000	24690
18100	23641
18200	22959
18300	23042
18400	22938
18500	23858
18600	24830
18700	26951
18800	29092
18900	32556
19000	35684
19100	38374
19200	42295
19300	44810
19400	46788
19500	47835
19600	48405
19700	48894
19800	49087
19900	50215
20000	52296
20100	54293
20200	59211
20300	64254
20400	70447
20500	76712
20600	82750
20700	87311
20800	92064
20900	94720
21000	95932
21100	96987
21200	96886
21300	95040
21400	92581
21500	89623
21600	84459
21700	79169
21800	72851
21900	66276
22000	59265
22100	52643
22200	46573
22300	40634
22400	35271
22500	30873
22600	26962
22700	23337
22800	20735
22900	18663
23000	16540
23100	14838
23200	13626
23300	12520
23400	11833
23500	11205
23600	10504
23700	9913
23800	9693
23900	9706
24000	9647
24100	9419
24200	9625
24300	9718
24400	10028
24500	10839
24600	11688
24700	12839
24800	14517
24900	16572
25000	18750
25100	21748
25200	25076
25300	28304
25400	32522
25500	36181
25600	39134
25700	41134
25800	42594
25900	43424
26000	44830
26100	48711
26200	55526
26300	66878
26400	82413
26500	103020
26600	124244
26700	146173
26800	164155
26900	177804
27000	183832
27100	186162
27200	180263
27300	162385
27400	130364
27500	92733
27600	59287
27700	35811
27800	22517
27900	15720
28000	12880
28100	11545
28200	10887
28300	10696
28400	10549
28500	10523
28600	10518
28700	10493
28800	10693
28900	10632
29000	10747
29100	11016
29200	10918
29300	11168
29400	11304
29500	11482
29600	11472
29700	11580
29800	11915
29900	11875
30000	12072
30100	12225
30200	12248
30300	12296
30400	12550
30500	12597
30600	12858
30700	13196
30800	13360
30900	13611
31000	13851
31100	14177
31200	14351
31300	14474
31400	14632
31500	14928
31600	15139
31700	15218
31800	15452
31900	15377
32000	15562
32100	15648
32200	15631
32300	15431
32400	15345
32500	15553
32600	15281
32700	15136
32800	15115
32900	14907
33000	14967
33100	14638
33200	14566
33300	14336
33400	14179
33500	14198
33600	13897
33700	13484
33800	13426
33900	13022
34000	12571
34100	12328
34200	11955
34300	11693
34400	11351
34500	11286
34600	11243
34700	10524
34800	10509
34900	10277
35000	10119
35100	9937
35200	9604
35300	9707
35400	9772
35500	9664
35600	9689
35700	9844
35800	9872
35900	10010
36000	10288
36100	10342
36200	10795
36300	11012
36400	11274
36500	11678
36600	11985
36700	12680
36800	12547
36900	13234
37000	13703
37100	13969
37200	14653
37300	14781
37400	15461
37500	15929
37600	15668
37700	16126
37800	16302
37900	16587
38000	16829
38100	16653
38200	16700
38300	16649
38400	16150
38500	15840
38600	15607
38700	15362
38800	15105
38900	14564
39000	14056
39100	14104
39200	13409
39300	13208
39400	12613
39500	12242
39600	11901
39700	11869
39800	11460
39900	11298
40000	11164
40100	10784
40200	11041
40300	10701
40400	10883
40500	10736
40600	10825
40700	11017
40800	11167
40900	11067
41000	11601
41100	11597
41200	12038
41300	12361
41400	12461
41500	12742
41600	12882
41700	13264
41800	13721
41900	13847
42000	14275
42100	14512
42200	14718
42300	15144
42400	15375
42500	15858
42600	16373
42700	16581
42800	17090
42900	17239
43000	17971
43100	17770
43200	18183
43300	18264
43400	18457
43500	18440
43600	18359
43700	18532
43800	18829
43900	18972
44000	19467
44100	19967
44200	20414
44300	21642
44400	22285
44500	23444
44600	24431
44700	25574
44800	26908
44900	28246
45000	29712
45100	31696
45200	32955
45300	35193
45400	37646
45500	40032
45600	43241
45700	46785
45800	50893
45900	55680
46000	60420
46100	65932
46200	71513
46300	77672
46400	83152
46500	88522
46600	93470
46700	97467
46800	101419
46900	105140
47000	107631
47100	109636
47200	109776
47300	111208
47400	111996
47500	112886
47600	113674
47700	115987
47800	120070
47900	126187
48000	134010
48100	147066
48200	164149
48300	185099
48400	211700
48500	241017
48600	274487
48700	310762
48800	347764
48900	384961
49000	421348
49100	456262
49200	487068
49300	513692
49400	533217
49500	550912
49600	558312
49700	561119
49800	558832
49900	550623
50000	540428
50100	524604
50200	509841
50300	492705
50400	475541
50500	458234
50600	441902
50700	423653
50800	408967
50900	392711
51000	376461
51100	360059
51200	346267
51300	333520
51400	317934
51500	306761
51600	291678
51700	280756
51800	266815
51900	251368
52000	235831
52100	218981
52200	199852
52300	182737
52400	165465
52500	150764
52600	137415
52700	124967
52800	114716
52900	104395
53000	95225
53100	85679
53200	77210
53300	69829
53400	62357
53500	54371
53600	48046
53700	42038
53800	37029
53900	32653
54000	28657
54100	25428
54200	22666
54300	20528
54400	18774
54500	16976
54600	15679
54700	14386
54800	13580
54900	12882
55000	12229
55100	11415
55200	11162
55300	10687
55400	10511
55500	10006
55600	9884
55700	9651
55800	9463
55900	9371
56000	9210
56100	9090
56200	9017
56300	8957
56400	9040
56500	8718
56600	8914
56700	8739
56800	9075
56900	8820
57000	8724
57100	8909
57200	9042
57300	8874
57400	8951
57500	8936
57600	9145
57700	9132
57800	9039
57900	9118
58000	9028
58100	9146
58200	9374
58300	9385
58400	9286
58500	9482
58600	9582
58700	9668
58800	9848
58900	9743
59000	9934
59100	10039
59200	9807
59300	10031
59400	10182
59500	10014
59600	10271
59700	10279
59800	10379
59900	10337
60000	10304
60100	10441
60200	10470
60300	10548
60400	10482
60500	10754
60600	10847
60700	10941
60800	10813
60900	10997
61000	11176
61100	11212
61200	11011
61300	11364
61400	11435
61500	11728
61600	11927
61700	12032
61800	12151
61900	12483
62000	12921
62100	13175
62200	13602
62300	13976
62400	14587
62500	15247
62600	16200
62700	16899
62800	17993
62900	19477
63000	20844
63100	22655
63200	24805
63300	27350
63400	29820
63500	32714
63600	35975
63700	39493
63800	43006
63900	46762
64000	50515
64100	54954
64200	59199
64300	62697
64400	66858
64500	69944
64600	73597
64700	75674
64800	77676
64900	78788
65000	78900
65100	78097
65200	76617
65300	74576
65400	70988
65500	67270
65600	63326
65700	59141
65800	54343
65900	49626
66000	45669
66100	41294
66200	37495
66300	34098
66400	30918
66500	28221
66600	25694
66700	23751
66800	22137
66900	20735
67000	19336
67100	18282
67200	17304
67300	16422
67400	15762
67500	15236
67600	14875
67700	14692
67800	14288
67900	14216
68000	14083
68100	13945
68200	13721
68300	13512
68400	13676
68500	13430
68600	13283
68700	13391
68800	13325
68900	13255
69000	13207
69100	13228
69200	13166
69300	12995
69400	13105
69500	13083
69600	12962
69700	13126
69800	12945
69900	13042
70000	13039
70100	12966
70200	13113
70300	12987
70400	13002
70500	12987
70600	12822
70700	12899
70800	13000
70900	12854
71000	13173
71100	12917
71200	13186
71300	13169
71400	13306
71500	13224
71600	13160
71700	13237
71800	13318
71900	13311
72000	13302
72100	13575
72200	13395
72300	13281
72400	13557
72500	13442
72600	13382
72700	13579
72800	13436
72900	13438
73000	13412
73100	13358
73200	13480
73300	13330
73400	13251
73500	13237
73600	13378
73700	13259
73800	13323
73900	13209
74000	13253
74100	13341
74200	13464
74300	13410
74400	13283
74500	13379
74600	13372
74700	13288
74800	13576
74900	13455
75000	13624
75100	13606
75200	13900
75300	13624
75400	13899
75500	13968
75600	13876
75700	14019
75800	14268
75900	14291
76000	14167
76100	14493
76200	14483
76300	14603
76400	14582
76500	14582
76600	14850
76700	14945
76800	14909
76900	14954
77000	15106
77100	14848
77200	15159
77300	15302
77400	15032
77500	14885
77600	15189
77700	15037
77800	14864
77900	14866
78000	14845
78100	14855
78200	14891
78300	14946
78400	14703
78500	14458
78600	14663
78700	14511
78800	14362
78900	14504
79000	14384
79100	14364
79200	14251
79300	14069
79400	14335
79500	14151
79600	14082
79700	14076
79800	14100
79900	13984
80000	13911
80100	14000
80200	13743
80300	13768
80400	13853
80500	13986
80600	13850
80700	13929
80800	13650
80900	13876
81000	13840
81100	13901
81200	13780
81300	13944
81400	13906
81500	14052
81600	13825
81700	14143
81800	13965
81900	14185
82000	13997
82100	14147
82200	14524
82300	14327
82400	14497
82500	14401
82600	14386
82700	14757
82800	14852
82900	14921
83000	15057
83100	15089
83200	15269
83300	15329
83400	15290
83500	15580
83600	15612
83700	15567
83800	15921
83900	15729
84000	16273
84100	16121
84200	16224
84300	16328
84400	16379
84500	16536
84600	16609
84700	16564
84800	16914
84900	17123
85000	17012
85100	17446
85200	17590
85300	17351
85400	17834
85500	17928
85600	18084
85700	18164
85800	18298
85900	18439
86000	19225
86100	18890
86200	19260
86300	19569
86400	19835
86500	19817
86600	20226
86700	20521
86800	20587
86900	20684
87000	20933
87100	21112
87200	21198
87300	21797
87400	21853
87500	21926
87600	21982
87700	22233
87800	22045
87900	22152
88000	22325
88100	21849
88200	21890
88300	21851
88400	21549
88500	21360
88600	21187
88700	21182
88800	20843
88900	20402
89000	20432
89100	20404
89200	19970
89300	19718
89400	19378
89500	19373
89600	18962
89700	18991
89800	18856
89900	18716
90000	18396
90100	18266
90200	18337
90300	18201
90400	18433
90500	18192
90600	18242
90700	18212
90800	18481
90900	18345
91000	18228
91100	18303
91200	18222
91300	18384
91400	18708
91500	18416
91600	18255
91700	18455
91800	18780
91900	18817
92000	18813
92100	18989
92200	19014
92300	19400
92400	19172
92500	19241
92600	19270
92700	19262
92800	19493
92900	19615
93000	19787
93100	19933
93200	19971
93300	19818
93400	19907
93500	19699
93600	20168
93700	19886
93800	20199
93900	20046
94000	20278
94100	19933
94200	20350
94300	20511
94400	20326
94500	20441
94600	20324
94700	20519
94800	20228
94900	20546
95000	20522
95100	20777
95200	20791
95300	20571
95400	20782
95500	20787
95600	20997
95700	20916
95800	20710
95900	20929
96000	20638
96100	21198
96200	20968
96300	21018
96400	20998
96500	21033
96600	21088
96700	21177
96800	20964
96900	21146
97000	21111
97100	21107
97200	21087
97300	20953
97400	20890
97500	20918
97600	20881
97700	20985
97800	20771
97900	20748
98000	20729
98100	20939
98200	20663
98300	20431
98400	20875
98500	20745
98600	20273
98700	20250
98800	20090
98900	20208
99000	19970
99100	19893
99200	19618
99300	19571
99400	19550
99500	19116
99600	19047
99700	19197
99800	19211
99900	19029
