"Time (ps)"	"Counts per bin"
0	29497355
100	0
200	0
300	0
400	0
500	0
600	0
700	0
800	0
900	0
1000	0
1100	0
1200	0
1300	0
1400	0
1500	0
1600	0
1700	0
1800	0
1900	0
2000	0
2100	0
2200	0
2300	0
2400	0
2500	0
2600	0
2700	0
2800	0
2900	0
3000	0
3100	0
3200	0
3300	0
3400	0
3500	0
3600	0
3700	0
3800	0
3900	0
4000	0
4100	0
4200	0
4300	0
4400	0
4500	0
4600	0
4700	0
4800	0
4900	0
5000	0
5100	0
5200	0
5300	0
5400	0
5500	0
5600	0
5700	0
5800	0
5900	0
6000	0
6100	0
6200	0
6300	0
6400	0
6500	0
6600	0
6700	0
6800	0
6900	0
7000	0
7100	0
7200	0
7300	0
7400	0
7500	0
7600	0
7700	0
7800	0
7900	0
8000	0
8100	0
8200	0
8300	0
8400	0
8500	0
8600	0
8700	0
8800	0
8900	0
9000	0
9100	0
9200	0
9300	0
9400	0
9500	0
9600	0
9700	0
9800	0
9900	0
10000	0
10100	0
10200	0
10300	0
10400	0
10500	0
10600	0
10700	0
10800	0
10900	0
11000	0
11100	0
11200	0
11300	0
11400	0
11500	0
11600	0
11700	0
11800	0
11900	0
12000	0
12100	0
12200	0
12300	0
12400	0
12500	0
12600	0
12700	1
12800	1
12900	0
13000	1
13100	1
13200	1
13300	2
13400	2
13500	11
13600	6
13700	6
13800	9
13900	21
14000	33
14100	47
14200	59
14300	113
14400	144
14500	190
14600	258
14700	326
14800	366
14900	445
15000	489
15100	488
15200	491
15300	554
15400	583
15500	592
15600	666
15700	665
15800	731
15900	765
16000	766
16100	777
16200	817
16300	853
16400	820
16500	988
16600	954
16700	983
16800	991
16900	985
17000	1038
17100	983
17200	1003
17300	1035
17400	1001
17500	1096
17600	946
17700	1015
17800	1019
17900	994
18000	1107
18100	1114
18200	1111
18300	1122
18400	1133
18500	1158
18600	1181
18700	1115
18800	1147
18900	1179
19000	1127
19100	1184
19200	1178
19300	1227
19400	1141
19500	1100
19600	1245
19700	1183
19800	1205
19900	1207
20000	1203
20100	1248
20200	1232
20300	1220
20400	1255
20500	1288
20600	1270
20700	1335
20800	1250
20900	1275
21000	1238
21100	1315
21200	1254
21300	1301
21400	1351
21500	1269
21600	1392
21700	1306
21800	1236
21900	1295
22000	1409
22100	1403
22200	1297
22300	1338
22400	1307
22500	1352
22600	1337
22700	1332
22800	1356
22900	1416
23000	1274
23100	1348
23200	1396
23300	1389
23400	1363
23500	1374
23600	1431
23700	1425
23800	1388
23900	1394
24000	1347
24100	1403
24200	1379
24300	1446
24400	1368
24500	1430
24600	1384
24700	1392
24800	1467
24900	1424
25000	1380
25100	1436
25200	1422
25300	1427
25400	1426
25500	1379
25600	1328
25700	1354
25800	1366
25900	1435
26000	1388
26100	1399
26200	1547
26300	1517
26400	1500
26500	1547
26600	1526
26700	1472
26800	1548
26900	1534
27000	1576
27100	1465
27200	1444
27300	1420
27400	1473
27500	1391
27600	1434
27700	1459
27800	1431
27900	1416
28000	1458
28100	1425
28200	1488
28300	1462
28400	1462
28500	1458
28600	1455
28700	1405
28800	1427
28900	1427
29000	1434
29100	1351
29200	1430
29300	1427
29400	1377
29500	1462
29600	1465
29700	1462
29800	1479
29900	1439
30000	1456
30100	1452
30200	1491
30300	1419
30400	1422
30500	1491
30600	1427
30700	1452
30800	1481
30900	1473
31000	1490
31100	1418
31200	1448
31300	1453
31400	1444
31500	1469
31600	1462
31700	1402
31800	1392
31900	1424
32000	1444
32100	1466
32200	1416
32300	1513
32400	1385
32500	1401
32600	1429
32700	1438
32800	1430
32900	1535
33000	1430
33100	1412
33200	1433
33300	1363
33400	1481
33500	1408
33600	1421
33700	1420
33800	1465
33900	1374
34000	1443
34100	1384
34200	1440
34300	1438
34400	1480
34500	1500
34600	1473
34700	1417
34800	1497
34900	1448
35000	1386
35100	1373
35200	1427
35300	1429
35400	1470
35500	1474
35600	1488
35700	1377
35800	1475
35900	1476
36000	1437
36100	1443
36200	1482
36300	1465
36400	1406
36500	1416
36600	1376
36700	1517
36800	1458
36900	1398
37000	1397
37100	1403
37200	1501
37300	1456
37400	1433
37500	1420
37600	1415
37700	1464
37800	1499
37900	1494
38000	1346
38100	1424
38200	1443
38300	1386
38400	1435
38500	1397
38600	1510
38700	1398
38800	1501
38900	1393
39000	1416
39100	1475
39200	1461
39300	1452
39400	1412
39500	1464
39600	1438
39700	1473
39800	1498
39900	1390
40000	1457
40100	1376
40200	1438
40300	1436
40400	1457
40500	1380
40600	1401
40700	1422
40800	1438
40900	1456
41000	1473
41100	1422
41200	1432
41300	1424
41400	1472
41500	1377
41600	1493
41700	1394
41800	1456
41900	1387
42000	1483
42100	1460
42200	1499
42300	1469
42400	1421
42500	1375
42600	1460
42700	1408
42800	1462
42900	1429
43000	1492
43100	1476
43200	1382
43300	1461
43400	1480
43500	1456
43600	1419
43700	1467
43800	1476
43900	1489
44000	1501
44100	1498
44200	1499
44300	1452
44400	1524
44500	1436
44600	1438
44700	1385
44800	1443
44900	1445
45000	1406
45100	1461
45200	1396
45300	1448
45400	1357
45500	1461
45600	1504
45700	1410
45800	1386
45900	1384
46000	1452
46100	1397
46200	1404
46300	1464
46400	1396
46500	1397
46600	1424
46700	1460
46800	1434
46900	1461
47000	1490
47100	1442
47200	1427
47300	1452
47400	1405
47500	1455
47600	1379
47700	1467
47800	1443
47900	1444
48000	1435
48100	1416
48200	1504
48300	1478
48400	1446
48500	1424
48600	1423
48700	1468
48800	1404
48900	1416
49000	1463
49100	1445
49200	1456
49300	1470
49400	1476
49500	1472
49600	1453
49700	1430
49800	1412
49900	1511
50000	1454
50100	1471
50200	1422
50300	1415
50400	1413
50500	1437
50600	1442
50700	1398
50800	1452
50900	1437
51000	1435
51100	1406
51200	1485
51300	1462
51400	1484
51500	1512
51600	1423
51700	1439
51800	1373
51900	1468
52000	1457
52100	1461
52200	1457
52300	1388
52400	1540
52500	1390
52600	1494
52700	1433
52800	1422
52900	1486
53000	1527
53100	1480
53200	1504
53300	1445
53400	1493
53500	1448
53600	1471
53700	1451
53800	1408
53900	1406
54000	1429
54100	1577
54200	1507
54300	1401
54400	1381
54500	1460
54600	1472
54700	1459
54800	1397
54900	1409
55000	1385
55100	1455
55200	1381
55300	1406
55400	1393
55500	1443
55600	1465
55700	1405
55800	1401
55900	1510
56000	1451
56100	1439
56200	1472
56300	1382
56400	1354
56500	1425
56600	1439
56700	1413
56800	1455
56900	1395
57000	1423
57100	1408
57200	1428
57300	1453
57400	1399
57500	1535
57600	1412
57700	1455
57800	1483
57900	1436
58000	1473
58100	1441
58200	1368
58300	1386
58400	1450
58500	1443
58600	1431
58700	1457
58800	1469
58900	1467
59000	1454
59100	1453
59200	1447
59300	1391
59400	1486
59500	1441
59600	1421
59700	1489
59800	1413
59900	1455
60000	1445
60100	1374
60200	1417
60300	1364
60400	1379
60500	1430
60600	1456
60700	1424
60800	1415
60900	1437
61000	1472
61100	1412
61200	1457
61300	1420
61400	1364
61500	1499
61600	1428
61700	1391
61800	1421
61900	1462
62000	1413
62100	1497
62200	1540
62300	1468
62400	1405
62500	1425
62600	1448
62700	1403
62800	1445
62900	1422
63000	1421
63100	1441
63200	1402
63300	1478
63400	1392
63500	1469
63600	1459
63700	1436
63800	1502
63900	1430
64000	1488
64100	1492
64200	1416
64300	1442
64400	1443
64500	1451
64600	1467
64700	1444
64800	1459
64900	1407
65000	1407
65100	1498
65200	1459
65300	1442
65400	1404
65500	1460
65600	1375
65700	1374
65800	1449
65900	1435
66000	1391
66100	1425
66200	1410
66300	1466
66400	1457
66500	1388
66600	1501
66700	1524
66800	1470
66900	1468
67000	1538
67100	1487
67200	1404
67300	1477
67400	1413
67500	1404
67600	1496
67700	1382
67800	1449
67900	1425
68000	1378
68100	1446
68200	1425
68300	1422
68400	1448
68500	1470
68600	1529
68700	1498
68800	1424
68900	1518
69000	1444
69100	1370
69200	1467
69300	1476
69400	1421
69500	1498
69600	1494
69700	1484
69800	1413
69900	1394
70000	1408
70100	1434
70200	1409
70300	1463
70400	1387
70500	1395
70600	1437
70700	1468
70800	1451
70900	1534
71000	1408
71100	1420
71200	1514
71300	1447
71400	1409
71500	1400
71600	1396
71700	1407
71800	1468
71900	1420
72000	1503
72100	1483
72200	1505
72300	1434
72400	1472
72500	1435
72600	1474
72700	1461
72800	1427
72900	1432
73000	1497
73100	1401
73200	1501
73300	1420
73400	1432
73500	1449
73600	1410
73700	1424
73800	1428
73900	1431
74000	1518
74100	1517
74200	1391
74300	1424
74400	1410
74500	1405
74600	1436
74700	1489
74800	1483
74900	1465
75000	1434
75100	1492
75200	1469
75300	1415
75400	1347
75500	1428
75600	1441
75700	1423
75800	1389
75900	1454
76000	1460
76100	1481
76200	1516
76300	1429
76400	1468
76500	1456
76600	1489
76700	1465
76800	1455
76900	1471
77000	1445
77100	1493
77200	1470
77300	1497
77400	1443
77500	1449
77600	1451
77700	1465
77800	1485
77900	1446
78000	1444
78100	1481
78200	1470
78300	1421
78400	1418
78500	1470
78600	1458
78700	1504
78800	1493
78900	1498
79000	1485
79100	1418
79200	1486
79300	1436
79400	1489
79500	1469
79600	1465
79700	1527
79800	1501
79900	1439
80000	1437
80100	1414
80200	1508
80300	1425
80400	1475
80500	1444
80600	1472
80700	1430
80800	1418
80900	1419
81000	1431
81100	1479
81200	1429
81300	1403
81400	1389
81500	1438
81600	1405
81700	1456
81800	1483
81900	1496
82000	1385
82100	1418
82200	1407
82300	1438
82400	1412
82500	1442
82600	1415
82700	1497
82800	1431
82900	1466
83000	1493
83100	1409
83200	1422
83300	1410
83400	1433
83500	1378
83600	1467
83700	1445
83800	1466
83900	1520
84000	1441
84100	1510
84200	1478
84300	1465
84400	1435
84500	1396
84600	1441
84700	1473
84800	1494
84900	1521
85000	1501
85100	1461
85200	1406
85300	1474
85400	1465
85500	1473
85600	1422
85700	1432
85800	1437
85900	1459
86000	1453
86100	1434
86200	1461
86300	1474
86400	1472
86500	1408
86600	1484
86700	1446
86800	1492
86900	1473
87000	1496
87100	1390
87200	1463
87300	1462
87400	1397
87500	1463
87600	1463
87700	1388
87800	1399
87900	1449
88000	1448
88100	1407
88200	1508
88300	1481
88400	1405
88500	1478
88600	1469
88700	1518
88800	1385
88900	1392
89000	1463
89100	1465
89200	1477
89300	1435
89400	1439
89500	1505
89600	1440
89700	1459
89800	1468
89900	1423
90000	1395
90100	1407
90200	1436
90300	1437
90400	1438
90500	1481
90600	1486
90700	1458
90800	1389
90900	1401
91000	1457
91100	1440
91200	1398
91300	1460
91400	1392
91500	1434
91600	1419
91700	1442
91800	1430
91900	1427
92000	1391
92100	1414
92200	1469
92300	1352
92400	1424
92500	1509
92600	1423
92700	1364
92800	1450
92900	1406
93000	1396
93100	1484
93200	1401
93300	1438
93400	1470
93500	1394
93600	1486
93700	1477
93800	1434
93900	1461
94000	1461
94100	1510
94200	1454
94300	1461
94400	1364
94500	1515
94600	1528
94700	1425
94800	1490
94900	1446
95000	1510
95100	1545
95200	1414
95300	1451
95400	1396
95500	1379
95600	1525
95700	1412
95800	1494
95900	1484
96000	1440
96100	1394
96200	1425
96300	1414
96400	1438
96500	1443
96600	1466
96700	1371
96800	1458
96900	1452
97000	1420
97100	1374
97200	1469
97300	1478
97400	1462
97500	1441
97600	1407
97700	1382
97800	1421
97900	1448
98000	1423
98100	1439
98200	1423
98300	1509
98400	1452
98500	1436
98600	1508
98700	1446
98800	1449
98900	1384
99000	1403
99100	1427
99200	1457
99300	1440
99400	1436
99500	1428
99600	1416
99700	1405
99800	1500
99900	1391
