"Time (ps)"	"Counts per bin"
0	28797350
100	0
200	0
300	0
400	0
500	0
600	0
700	0
800	0
900	0
1000	0
1100	0
1200	0
1300	0
1400	0
1500	0
1600	0
1700	0
1800	0
1900	0
2000	0
2100	0
2200	0
2300	0
2400	0
2500	0
2600	0
2700	0
2800	0
2900	0
3000	0
3100	0
3200	0
3300	0
3400	0
3500	0
3600	0
3700	0
3800	0
3900	0
4000	0
4100	0
4200	0
4300	0
4400	0
4500	0
4600	0
4700	0
4800	0
4900	0
5000	0
5100	0
5200	0
5300	0
5400	0
5500	0
5600	0
5700	0
5800	0
5900	0
6000	0
6100	0
6200	0
6300	0
6400	0
6500	0
6600	0
6700	0
6800	0
6900	0
7000	0
7100	0
7200	0
7300	0
7400	0
7500	0
7600	0
7700	0
7800	0
7900	0
8000	0
8100	0
8200	0
8300	0
8400	0
8500	0
8600	0
8700	0
8800	0
8900	0
9000	0
9100	0
9200	0
9300	0
9400	0
9500	0
9600	0
9700	0
9800	0
9900	0
10000	0
10100	0
10200	0
10300	0
10400	0
10500	0
10600	0
10700	0
10800	0
10900	0
11000	0
11100	0
11200	0
11300	0
11400	0
11500	0
11600	0
11700	0
11800	0
11900	0
12000	0
12100	0
12200	0
12300	0
12400	0
12500	0
12600	0
12700	0
12800	0
12900	0
13000	0
13100	0
13200	0
13300	0
13400	0
13500	0
13600	0
13700	0
13800	0
13900	0
14000	0
14100	2
14200	3
14300	5
14400	5
14500	6
14600	12
14700	9
14800	21
14900	27
15000	33
15100	48
15200	78
15300	105
15400	147
15500	203
15600	311
15700	370
15800	453
15900	560
16000	600
16100	695
16200	741
16300	816
16400	814
16500	862
16600	825
16700	891
16800	939
16900	910
17000	950
17100	1062
17200	1100
17300	1166
17400	1070
17500	1147
17600	1213
17700	1223
17800	1204
17900	1243
18000	1167
18100	1292
18200	1306
18300	1248
18400	1237
18500	1200
18600	1222
18700	1225
18800	1217
18900	1174
19000	1153
19100	1214
19200	1263
19300	1210
19400	1226
19500	1263
19600	1293
19700	1316
19800	1299
19900	1293
20000	1234
20100	1234
20200	1349
20300	1295
20400	1342
20500	1243
20600	1345
20700	1332
20800	1281
20900	1330
21000	1336
21100	1287
21200	1286
21300	1326
21400	1344
21500	1388
21600	1368
21700	1320
21800	1294
21900	1330
22000	1332
22100	1351
22200	1369
22300	1326
22400	1354
22500	1390
22600	1368
22700	1415
22800	1403
22900	1374
23000	1373
23100	1331
23200	1338
23300	1367
23400	1335
23500	1340
23600	1277
23700	1355
23800	1348
23900	1350
24000	1358
24100	1285
24200	1388
24300	1349
24400	1370
24500	1339
24600	1376
24700	1438
24800	1338
24900	1404
25000	1394
25100	1371
25200	1358
25300	1395
25400	1327
25500	1357
25600	1316
25700	1325
25800	1253
25900	1274
26000	1364
26100	1392
26200	1409
26300	1468
26400	1456
26500	1564
26600	1530
26700	1464
26800	1461
26900	1386
27000	1432
27100	1398
27200	1336
27300	1408
27400	1421
27500	1430
27600	1328
27700	1427
27800	1385
27900	1380
28000	1426
28100	1387
28200	1369
28300	1343
28400	1416
28500	1335
28600	1392
28700	1344
28800	1392
28900	1400
29000	1365
29100	1362
29200	1398
29300	1405
29400	1409
29500	1389
29600	1315
29700	1367
29800	1395
29900	1386
30000	1290
30100	1386
30200	1305
30300	1370
30400	1388
30500	1258
30600	1365
30700	1375
30800	1352
30900	1392
31000	1318
31100	1354
31200	1348
31300	1421
31400	1364
31500	1337
31600	1364
31700	1392
31800	1388
31900	1410
32000	1387
32100	1357
32200	1436
32300	1364
32400	1344
32500	1428
32600	1444
32700	1341
32800	1304
32900	1356
33000	1344
33100	1386
33200	1395
33300	1385
33400	1355
33500	1359
33600	1337
33700	1370
33800	1380
33900	1381
34000	1392
34100	1345
34200	1400
34300	1436
34400	1435
34500	1342
34600	1353
34700	1402
34800	1350
34900	1445
35000	1395
35100	1386
35200	1315
35300	1312
35400	1397
35500	1416
35600	1347
35700	1390
35800	1379
35900	1367
36000	1320
36100	1424
36200	1373
36300	1272
36400	1364
36500	1401
36600	1449
36700	1377
36800	1310
36900	1358
37000	1360
37100	1399
37200	1357
37300	1348
37400	1296
37500	1335
37600	1341
37700	1461
37800	1348
37900	1332
38000	1364
38100	1363
38200	1375
38300	1377
38400	1360
38500	1365
38600	1389
38700	1342
38800	1343
38900	1374
39000	1401
39100	1366
39200	1314
39300	1368
39400	1303
39500	1381
39600	1373
39700	1395
39800	1316
39900	1469
40000	1361
40100	1369
40200	1329
40300	1416
40400	1359
40500	1396
40600	1352
40700	1354
40800	1387
40900	1310
41000	1401
41100	1343
41200	1339
41300	1439
41400	1446
41500	1428
41600	1351
41700	1401
41800	1353
41900	1416
42000	1403
42100	1403
42200	1412
42300	1350
42400	1447
42500	1338
42600	1387
42700	1420
42800	1412
42900	1402
43000	1420
43100	1332
43200	1368
43300	1408
43400	1356
43500	1396
43600	1371
43700	1366
43800	1325
43900	1414
44000	1319
44100	1357
44200	1378
44300	1340
44400	1390
44500	1392
44600	1322
44700	1416
44800	1409
44900	1338
45000	1389
45100	1372
45200	1351
45300	1362
45400	1354
45500	1349
45600	1347
45700	1372
45800	1363
45900	1419
46000	1381
46100	1403
46200	1391
46300	1400
46400	1389
46500	1356
46600	1360
46700	1395
46800	1389
46900	1354
47000	1328
47100	1438
47200	1360
47300	1355
47400	1371
47500	1401
47600	1316
47700	1368
47800	1341
47900	1329
48000	1359
48100	1440
48200	1385
48300	1429
48400	1365
48500	1434
48600	1358
48700	1257
48800	1352
48900	1337
49000	1390
49100	1448
49200	1361
49300	1380
49400	1353
49500	1379
49600	1331
49700	1438
49800	1304
49900	1453
50000	1359
50100	1401
50200	1341
50300	1357
50400	1362
50500	1345
50600	1360
50700	1377
50800	1415
50900	1422
51000	1426
51100	1381
51200	1355
51300	1403
51400	1321
51500	1474
51600	1398
51700	1389
51800	1369
51900	1375
52000	1368
52100	1358
52200	1336
52300	1385
52400	1358
52500	1374
52600	1376
52700	1383
52800	1361
52900	1378
53000	1356
53100	1390
53200	1446
53300	1349
53400	1404
53500	1424
53600	1394
53700	1361
53800	1317
53900	1338
54000	1397
54100	1380
54200	1374
54300	1482
54400	1318
54500	1409
54600	1366
54700	1389
54800	1396
54900	1385
55000	1381
55100	1327
55200	1365
55300	1415
55400	1411
55500	1293
55600	1382
55700	1332
55800	1415
55900	1360
56000	1371
56100	1359
56200	1381
56300	1318
56400	1334
56500	1336
56600	1316
56700	1363
56800	1372
56900	1367
57000	1404
57100	1358
57200	1377
57300	1395
57400	1347
57500	1361
57600	1409
57700	1342
57800	1386
57900	1433
58000	1329
58100	1331
58200	1337
58300	1367
58400	1336
58500	1373
58600	1401
58700	1356
58800	1445
58900	1417
59000	1381
59100	1382
59200	1334
59300	1428
59400	1398
59500	1395
59600	1393
59700	1344
59800	1326
59900	1398
60000	1342
60100	1418
60200	1342
60300	1392
60400	1293
60500	1428
60600	1372
60700	1392
60800	1381
60900	1316
61000	1395
61100	1376
61200	1376
61300	1438
61400	1373
61500	1373
61600	1438
61700	1384
61800	1375
61900	1294
62000	1354
62100	1393
62200	1343
62300	1403
62400	1381
62500	1321
62600	1371
62700	1424
62800	1400
62900	1379
63000	1408
63100	1464
63200	1352
63300	1365
63400	1422
63500	1390
63600	1390
63700	1352
63800	1385
63900	1398
64000	1407
64100	1409
64200	1321
64300	1352
64400	1375
64500	1359
64600	1405
64700	1401
64800	1382
64900	1317
65000	1395
65100	1376
65200	1376
65300	1405
65400	1379
65500	1368
65600	1321
65700	1328
65800	1381
65900	1296
66000	1395
66100	1404
66200	1402
66300	1269
66400	1426
66500	1397
66600	1398
66700	1407
66800	1308
66900	1369
67000	1351
67100	1367
67200	1412
67300	1406
67400	1417
67500	1379
67600	1397
67700	1327
67800	1334
67900	1341
68000	1435
68100	1318
68200	1341
68300	1436
68400	1326
68500	1414
68600	1338
68700	1352
68800	1313
68900	1388
69000	1383
69100	1328
69200	1395
69300	1356
69400	1379
69500	1431
69600	1341
69700	1374
69800	1339
69900	1371
70000	1392
70100	1406
70200	1394
70300	1403
70400	1398
70500	1378
70600	1435
70700	1342
70800	1388
70900	1396
71000	1387
71100	1352
71200	1365
71300	1381
71400	1379
71500	1327
71600	1315
71700	1398
71800	1376
71900	1422
72000	1402
72100	1336
72200	1476
72300	1402
72400	1347
72500	1345
72600	1376
72700	1360
72800	1407
72900	1364
73000	1419
73100	1404
73200	1430
73300	1344
73400	1305
73500	1326
73600	1335
73700	1300
73800	1342
73900	1327
74000	1394
74100	1421
74200	1413
74300	1444
74400	1362
74500	1396
74600	1376
74700	1343
74800	1470
74900	1406
75000	1405
75100	1383
75200	1383
75300	1426
75400	1339
75500	1300
75600	1331
75700	1303
75800	1362
75900	1382
76000	1420
76100	1401
76200	1365
76300	1418
76400	1352
76500	1412
76600	1422
76700	1421
76800	1407
76900	1406
77000	1387
77100	1410
77200	1364
77300	1317
77400	1386
77500	1381
77600	1383
77700	1442
77800	1356
77900	1352
78000	1341
78100	1329
78200	1340
78300	1416
78400	1484
78500	1375
78600	1400
78700	1459
78800	1386
78900	1359
79000	1376
79100	1376
79200	1350
79300	1372
79400	1388
79500	1420
79600	1346
79700	1379
79800	1431
79900	1346
80000	1332
80100	1369
80200	1385
80300	1412
80400	1360
80500	1380
80600	1393
80700	1398
80800	1397
80900	1363
81000	1367
81100	1357
81200	1410
81300	1349
81400	1422
81500	1365
81600	1356
81700	1355
81800	1439
81900	1384
82000	1407
82100	1377
82200	1433
82300	1419
82400	1352
82500	1421
82600	1334
82700	1382
82800	1390
82900	1370
83000	1389
83100	1433
83200	1391
83300	1417
83400	1387
83500	1352
83600	1424
83700	1396
83800	1398
83900	1383
84000	1423
84100	1363
84200	1412
84300	1413
84400	1361
84500	1324
84600	1421
84700	1460
84800	1344
84900	1396
85000	1359
85100	1378
85200	1439
85300	1400
85400	1396
85500	1422
85600	1354
85700	1417
85800	1419
85900	1404
86000	1315
86100	1376
86200	1381
86300	1438
86400	1363
86500	1355
86600	1413
86700	1354
86800	1459
86900	1373
87000	1324
87100	1392
87200	1407
87300	1372
87400	1362
87500	1456
87600	1352
87700	1327
87800	1362
87900	1402
88000	1430
88100	1381
88200	1325
88300	1436
88400	1377
88500	1413
88600	1352
88700	1362
88800	1376
88900	1355
89000	1422
89100	1406
89200	1344
89300	1452
89400	1383
89500	1366
89600	1360
89700	1329
89800	1427
89900	1506
90000	1376
90100	1412
90200	1378
90300	1387
90400	1440
90500	1387
90600	1403
90700	1382
90800	1355
90900	1375
91000	1390
91100	1385
91200	1388
91300	1384
91400	1326
91500	1379
91600	1422
91700	1358
91800	1408
91900	1335
92000	1401
92100	1332
92200	1445
92300	1446
92400	1317
92500	1373
92600	1336
92700	1383
92800	1391
92900	1361
93000	1401
93100	1409
93200	1385
93300	1415
93400	1333
93500	1308
93600	1380
93700	1386
93800	1385
93900	1406
94000	1363
94100	1360
94200	1435
94300	1416
94400	1382
94500	1421
94600	1440
94700	1400
94800	1316
94900	1388
95000	1370
95100	1384
95200	1424
95300	1359
95400	1441
95500	1417
95600	1387
95700	1387
95800	1407
95900	1390
96000	1325
96100	1369
96200	1351
96300	1368
96400	1374
96500	1358
96600	1407
96700	1381
96800	1375
96900	1383
97000	1361
97100	1336
97200	1373
97300	1354
97400	1349
97500	1372
97600	1411
97700	1396
97800	1410
97900	1392
98000	1383
98100	1365
98200	1363
98300	1347
98400	1387
98500	1403
98600	1411
98700	1350
98800	1379
98900	1358
99000	1370
99100	1334
99200	1484
99300	1439
99400	1407
99500	1391
99600	1339
99700	1397
99800	1336
99900	1358
