"Time (ps)"	"Counts per bin"
0	29511434
100	0
200	0
300	0
400	0
500	0
600	0
700	0
800	0
900	0
1000	0
1100	0
1200	0
1300	0
1400	0
1500	0
1600	0
1700	0
1800	0
1900	0
2000	0
2100	0
2200	0
2300	0
2400	0
2500	0
2600	0
2700	0
2800	0
2900	0
3000	0
3100	0
3200	0
3300	0
3400	0
3500	0
3600	0
3700	0
3800	0
3900	0
4000	0
4100	0
4200	0
4300	0
4400	0
4500	0
4600	0
4700	0
4800	0
4900	0
5000	0
5100	0
5200	0
5300	0
5400	0
5500	0
5600	0
5700	0
5800	0
5900	0
6000	0
6100	0
6200	0
6300	0
6400	0
6500	0
6600	0
6700	0
6800	0
6900	0
7000	0
7100	0
7200	0
7300	0
7400	0
7500	0
7600	0
7700	0
7800	0
7900	0
8000	0
8100	0
8200	0
8300	0
8400	0
8500	0
8600	0
8700	0
8800	0
8900	0
9000	0
9100	0
9200	0
9300	0
9400	0
9500	0
9600	0
9700	0
9800	0
9900	0
10000	0
10100	0
10200	0
10300	0
10400	0
10500	0
10600	0
10700	0
10800	1
10900	0
11000	2
11100	0
11200	4
11300	2
11400	1
11500	4
11600	10
11700	22
11800	22
11900	32
12000	59
12100	70
12200	85
12300	116
12400	142
12500	174
12600	198
12700	195
12800	206
12900	219
13000	225
13100	255
13200	265
13300	313
13400	344
13500	379
13600	416
13700	429
13800	429
13900	455
14000	484
14100	513
14200	513
14300	557
14400	569
14500	589
14600	581
14700	628
14800	666
14900	653
15000	673
15100	689
15200	661
15300	708
15400	722
15500	757
15600	742
15700	753
15800	798
15900	847
16000	829
16100	881
16200	874
16300	889
16400	895
16500	969
16600	921
16700	847
16800	929
16900	951
17000	961
17100	960
17200	985
17300	1026
17400	1006
17500	934
17600	1032
17700	1056
17800	1060
17900	1037
18000	1116
18100	1075
18200	1113
18300	1110
18400	1069
18500	1124
18600	1130
18700	1143
18800	1166
18900	1176
19000	1100
19100	1199
19200	1155
19300	1175
19400	1148
19500	1196
19600	1233
19700	1259
19800	1184
19900	1294
20000	1153
20100	1165
20200	1210
20300	1240
20400	1185
20500	1276
20600	1268
20700	1297
20800	1354
20900	1257
21000	1253
21100	1316
21200	1277
21300	1336
21400	1343
21500	1316
21600	1302
21700	1317
21800	1316
21900	1349
22000	1327
22100	1305
22200	1275
22300	1335
22400	1331
22500	1384
22600	1350
22700	1370
22800	1344
22900	1391
23000	1389
23100	1382
23200	1360
23300	1381
23400	1368
23500	1379
23600	1370
23700	1437
23800	1345
23900	1385
24000	1386
24100	1466
24200	1386
24300	1324
24400	1377
24500	1385
24600	1393
24700	1368
24800	1394
24900	1387
25000	1362
25100	1385
25200	1456
25300	1447
25400	1319
25500	1370
25600	1359
25700	1352
25800	1368
25900	1418
26000	1513
26100	1466
26200	1521
26300	1500
26400	1494
26500	1589
26600	1553
26700	1490
26800	1501
26900	1517
27000	1514
27100	1439
27200	1440
27300	1435
27400	1471
27500	1416
27600	1427
27700	1410
27800	1450
27900	1418
28000	1409
28100	1467
28200	1464
28300	1512
28400	1436
28500	1471
28600	1458
28700	1369
28800	1419
28900	1539
29000	1489
29100	1412
29200	1436
29300	1479
29400	1484
29500	1459
29600	1450
29700	1423
29800	1473
29900	1526
30000	1436
30100	1438
30200	1434
30300	1418
30400	1400
30500	1456
30600	1436
30700	1445
30800	1392
30900	1464
31000	1450
31100	1432
31200	1537
31300	1437
31400	1473
31500	1505
31600	1460
31700	1497
31800	1412
31900	1435
32000	1471
32100	1470
32200	1477
32300	1372
32400	1439
32500	1409
32600	1467
32700	1452
32800	1436
32900	1500
33000	1498
33100	1467
33200	1441
33300	1427
33400	1403
33500	1378
33600	1410
33700	1412
33800	1451
33900	1419
34000	1437
34100	1377
34200	1435
34300	1439
34400	1462
34500	1449
34600	1504
34700	1470
34800	1452
34900	1425
35000	1447
35100	1463
35200	1447
35300	1461
35400	1465
35500	1442
35600	1378
35700	1389
35800	1438
35900	1384
36000	1443
36100	1441
36200	1444
36300	1456
36400	1397
36500	1553
36600	1463
36700	1460
36800	1416
36900	1493
37000	1425
37100	1442
37200	1369
37300	1460
37400	1417
37500	1423
37600	1429
37700	1518
37800	1435
37900	1488
38000	1402
38100	1398
38200	1436
38300	1450
38400	1488
38500	1443
38600	1446
38700	1402
38800	1444
38900	1386
39000	1413
39100	1490
39200	1441
39300	1437
39400	1437
39500	1384
39600	1453
39700	1400
39800	1445
39900	1469
40000	1395
40100	1442
40200	1475
40300	1493
40400	1391
40500	1426
40600	1424
40700	1410
40800	1457
40900	1411
41000	1406
41100	1448
41200	1456
41300	1411
41400	1420
41500	1468
41600	1477
41700	1515
41800	1529
41900	1431
42000	1455
42100	1415
42200	1493
42300	1480
42400	1364
42500	1396
42600	1457
42700	1415
42800	1406
42900	1477
43000	1464
43100	1391
43200	1450
43300	1475
43400	1437
43500	1449
43600	1486
43700	1490
43800	1488
43900	1530
44000	1475
44100	1390
44200	1491
44300	1524
44400	1464
44500	1411
44600	1481
44700	1429
44800	1446
44900	1402
45000	1428
45100	1466
45200	1456
45300	1390
45400	1483
45500	1408
45600	1377
45700	1458
45800	1435
45900	1416
46000	1490
46100	1429
46200	1404
46300	1460
46400	1488
46500	1443
46600	1455
46700	1501
46800	1383
46900	1498
47000	1495
47100	1437
47200	1425
47300	1429
47400	1483
47500	1443
47600	1465
47700	1430
47800	1487
47900	1451
48000	1489
48100	1378
48200	1455
48300	1464
48400	1407
48500	1464
48600	1408
48700	1392
48800	1463
48900	1506
49000	1401
49100	1465
49200	1426
49300	1443
49400	1384
49500	1472
49600	1479
49700	1464
49800	1500
49900	1446
50000	1464
50100	1409
50200	1466
50300	1499
50400	1416
50500	1499
50600	1471
50700	1407
50800	1473
50900	1480
51000	1402
51100	1455
51200	1433
51300	1477
51400	1429
51500	1438
51600	1488
51700	1455
51800	1429
51900	1459
52000	1448
52100	1497
52200	1440
52300	1334
52400	1389
52500	1502
52600	1447
52700	1445
52800	1408
52900	1469
53000	1455
53100	1486
53200	1476
53300	1422
53400	1488
53500	1419
53600	1443
53700	1409
53800	1404
53900	1438
54000	1447
54100	1479
54200	1458
54300	1428
54400	1463
54500	1524
54600	1430
54700	1380
54800	1413
54900	1414
55000	1494
55100	1458
55200	1399
55300	1430
55400	1443
55500	1436
55600	1476
55700	1397
55800	1447
55900	1488
56000	1415
56100	1442
56200	1428
56300	1364
56400	1394
56500	1458
56600	1387
56700	1473
56800	1459
56900	1415
57000	1418
57100	1401
57200	1435
57300	1490
57400	1489
57500	1475
57600	1455
57700	1422
57800	1474
57900	1406
58000	1543
58100	1446
58200	1507
58300	1446
58400	1461
58500	1411
58600	1438
58700	1454
58800	1415
58900	1432
59000	1400
59100	1501
59200	1495
59300	1481
59400	1471
59500	1425
59600	1510
59700	1474
59800	1391
59900	1515
60000	1427
60100	1415
60200	1447
60300	1432
60400	1431
60500	1464
60600	1508
60700	1420
60800	1444
60900	1454
61000	1448
61100	1458
61200	1429
61300	1461
61400	1471
61500	1392
61600	1440
61700	1428
61800	1505
61900	1348
62000	1426
62100	1484
62200	1462
62300	1446
62400	1510
62500	1474
62600	1485
62700	1479
62800	1459
62900	1502
63000	1416
63100	1465
63200	1435
63300	1499
63400	1440
63500	1429
63600	1411
63700	1466
63800	1472
63900	1497
64000	1421
64100	1419
64200	1343
64300	1462
64400	1508
64500	1434
64600	1468
64700	1468
64800	1404
64900	1393
65000	1370
65100	1492
65200	1475
65300	1447
65400	1430
65500	1492
65600	1435
65700	1478
65800	1427
65900	1497
66000	1397
66100	1471
66200	1459
66300	1455
66400	1442
66500	1474
66600	1389
66700	1491
66800	1424
66900	1463
67000	1534
67100	1557
67200	1452
67300	1443
67400	1479
67500	1456
67600	1414
67700	1427
67800	1412
67900	1447
68000	1453
68100	1443
68200	1426
68300	1410
68400	1419
68500	1502
68600	1477
68700	1440
68800	1419
68900	1450
69000	1419
69100	1480
69200	1455
69300	1521
69400	1492
69500	1449
69600	1400
69700	1440
69800	1482
69900	1447
70000	1454
70100	1519
70200	1339
70300	1445
70400	1460
70500	1488
70600	1433
70700	1488
70800	1437
70900	1431
71000	1376
71100	1480
71200	1469
71300	1430
71400	1427
71500	1427
71600	1498
71700	1476
71800	1501
71900	1489
72000	1507
72100	1461
72200	1443
72300	1477
72400	1489
72500	1457
72600	1433
72700	1457
72800	1503
72900	1493
73000	1469
73100	1501
73200	1545
73300	1443
73400	1478
73500	1511
73600	1442
73700	1425
73800	1470
73900	1444
74000	1431
74100	1433
74200	1485
74300	1413
74400	1458
74500	1447
74600	1464
74700	1500
74800	1458
74900	1555
75000	1433
75100	1474
75200	1493
75300	1443
75400	1510
75500	1464
75600	1486
75700	1458
75800	1489
75900	1460
76000	1473
76100	1502
76200	1444
76300	1429
76400	1507
76500	1456
76600	1446
76700	1533
76800	1483
76900	1569
77000	1417
77100	1409
77200	1481
77300	1477
77400	1433
77500	1444
77600	1446
77700	1493
77800	1480
77900	1424
78000	1493
78100	1443
78200	1473
78300	1398
78400	1477
78500	1453
78600	1438
78700	1494
78800	1463
78900	1464
79000	1437
79100	1523
79200	1480
79300	1519
79400	1475
79500	1443
79600	1493
79700	1494
79800	1454
79900	1515
80000	1409
80100	1520
80200	1448
80300	1450
80400	1532
80500	1488
80600	1515
80700	1449
80800	1476
80900	1517
81000	1394
81100	1480
81200	1499
81300	1505
81400	1434
81500	1437
81600	1408
81700	1432
81800	1491
81900	1525
82000	1485
82100	1456
82200	1412
82300	1438
82400	1519
82500	1543
82600	1494
82700	1457
82800	1387
82900	1459
83000	1425
83100	1387
83200	1448
83300	1453
83400	1479
83500	1463
83600	1533
83700	1406
83800	1468
83900	1381
84000	1473
84100	1446
84200	1475
84300	1432
84400	1461
84500	1460
84600	1464
84700	1521
84800	1364
84900	1409
85000	1435
85100	1491
85200	1472
85300	1440
85400	1442
85500	1407
85600	1356
85700	1451
85800	1438
85900	1475
86000	1451
86100	1468
86200	1422
86300	1512
86400	1435
86500	1521
86600	1435
86700	1495
86800	1516
86900	1458
87000	1460
87100	1513
87200	1366
87300	1475
87400	1422
87500	1487
87600	1488
87700	1465
87800	1462
87900	1466
88000	1435
88100	1420
88200	1449
88300	1462
88400	1546
88500	1482
88600	1426
88700	1419
88800	1485
88900	1459
89000	1475
89100	1482
89200	1433
89300	1457
89400	1464
89500	1499
89600	1451
89700	1422
89800	1423
89900	1485
90000	1478
90100	1515
90200	1486
90300	1423
90400	1387
90500	1407
90600	1502
90700	1443
90800	1522
90900	1444
91000	1431
91100	1425
91200	1400
91300	1395
91400	1402
91500	1490
91600	1440
91700	1480
91800	1381
91900	1419
92000	1421
92100	1403
92200	1472
92300	1448
92400	1391
92500	1437
92600	1432
92700	1466
92800	1457
92900	1456
93000	1469
93100	1427
93200	1413
93300	1430
93400	1513
93500	1430
93600	1395
93700	1407
93800	1444
93900	1385
94000	1492
94100	1529
94200	1462
94300	1441
94400	1480
94500	1396
94600	1516
94700	1419
94800	1485
94900	1408
95000	1490
95100	1469
95200	1424
95300	1488
95400	1512
95500	1476
95600	1461
95700	1387
95800	1441
95900	1422
96000	1406
96100	1470
96200	1454
96300	1517
96400	1397
96500	1480
96600	1444
96700	1444
96800	1377
96900	1428
97000	1505
97100	1431
97200	1476
97300	1438
97400	1485
97500	1531
97600	1447
97700	1416
97800	1437
97900	1431
98000	1412
98100	1493
98200	1418
98300	1433
98400	1431
98500	1414
98600	1475
98700	1495
98800	1439
98900	1489
99000	1443
99100	1521
99200	1422
99300	1524
99400	1458
99500	1469
99600	1484
99700	1415
99800	1425
99900	1418
